SpectraSuite Data File
++++++++++++++++++++++++++++++++++++
Date: Mon Dec 07 11:51:37 CET 2020
User: kruno
Dark Spectrum Present: Yes
Reference Spectrum Present: Yes
Number of Sampled Component Spectra: 1
Spectrometers: HR4C252
Integration Time (usec): 100000 (HR4C252)
Spectra Averaged: 25 (HR4C252)
Boxcar Smoothing: 0 (HR4C252)
Correct for Electrical Dark: No (HR4C252)
Strobe/Lamp Enabled: No (HR4C252)
Correct for Detector Non-linearity: No (HR4C252)
Correct for Stray Light: No (HR4C252)
Number of Pixels in Processed Spectrum: 3648
>>>>>Begin Processed Spectral Data<<<<<
195.26	0.000
195.53	0.000
195.80	0.000
196.07	-0.000
196.34	-0.000
196.61	0.000
196.88	0.000
197.15	-0.000
197.42	-0.000
197.70	-0.000
197.97	0.000
198.24	0.000
198.51	0.000
198.78	0.000
199.05	0.000
199.32	-0.000
199.59	0.000
199.86	0.000
200.13	0.000
200.40	0.000
200.67	0.000
200.94	0.000
201.21	0.000
201.48	0.000
201.74	0.000
202.01	0.000
202.28	0.000
202.55	0.000
202.82	0.000
203.09	0.000
203.36	0.000
203.63	0.000
203.90	0.000
204.17	0.000
204.44	0.000
204.71	0.000
204.98	0.000
205.25	0.000
205.52	0.000
205.79	0.000
206.06	0.000
206.33	0.000
206.60	0.000
206.87	0.000
207.14	0.000
207.41	0.000
207.68	0.000
207.95	0.000
208.22	0.000
208.49	0.000
208.76	0.000
209.03	0.000
209.30	0.000
209.57	0.000
209.84	0.000
210.11	0.000
210.38	0.000
210.65	0.000
210.92	0.000
211.19	0.000
211.46	0.000
211.73	0.000
212.00	0.000
212.27	0.000
212.54	0.000
212.80	0.000
213.07	0.000
213.34	0.000
213.61	0.000
213.88	0.000
214.15	0.000
214.42	0.000
214.69	0.000
214.96	0.000
215.23	0.000
215.50	0.000
215.77	0.000
216.04	0.000
216.31	0.000
216.58	0.000
216.85	0.000
217.12	0.000
217.39	0.000
217.66	0.000
217.93	0.000
218.19	0.000
218.46	0.000
218.73	0.000
219.00	0.000
219.27	0.000
219.54	0.000
219.81	0.000
220.08	0.000
220.35	0.000
220.62	0.000
220.89	0.000
221.16	0.000
221.43	0.000
221.70	0.000
221.97	0.000
222.23	0.000
222.50	0.000
222.77	0.000
223.04	0.000
223.31	0.000
223.58	0.000
223.85	0.000
224.12	0.000
224.39	0.000
224.66	0.000
224.93	0.000
225.20	0.000
225.46	0.000
225.73	0.000
226.00	0.000
226.27	0.000
226.54	0.000
226.81	0.000
227.08	0.000
227.35	0.000
227.62	0.000
227.89	0.000
228.16	0.000
228.43	0.000
228.69	0.000
228.96	0.000
229.23	0.000
229.50	0.000
229.77	0.000
230.04	0.000
230.31	0.000
230.58	0.000
230.85	0.000
231.12	0.000
231.38	0.000
231.65	0.000
231.92	0.000
232.19	0.000
232.46	0.000
232.73	0.000
233.00	0.000
233.27	0.000
233.54	0.000
233.80	0.000
234.07	0.000
234.34	0.000
234.61	0.000
234.88	0.000
235.15	0.000
235.42	0.000
235.69	0.000
235.96	0.000
236.22	0.000
236.49	0.000
236.76	0.000
237.03	0.000
237.30	0.000
237.57	0.000
237.84	0.000
238.11	0.000
238.37	0.000
238.64	0.000
238.91	0.000
239.18	0.000
239.45	0.000
239.72	0.000
239.99	0.000
240.26	0.000
240.52	0.000
240.79	0.000
241.06	0.000
241.33	0.000
241.60	0.000
241.87	0.000
242.14	0.000
242.40	0.000
242.67	0.000
242.94	0.000
243.21	0.000
243.48	0.000
243.75	0.000
244.02	0.000
244.28	0.000
244.55	0.000
244.82	0.000
245.09	0.000
245.36	0.000
245.63	0.000
245.90	0.000
246.16	0.000
246.43	0.000
246.70	0.000
246.97	0.000
247.24	0.000
247.51	0.000
247.77	0.000
248.04	0.000
248.31	0.000
248.58	0.000
248.85	0.000
249.12	0.000
249.39	0.000
249.65	0.000
249.92	0.000
250.19	-4.127
250.46	5.790
250.73	-3.983
251.00	-8.942
251.26	-6.444
251.53	-27.172
251.80	-3.260
252.07	20.884
252.34	9.557
252.61	13.710
252.87	1.090
253.14	-0.405
253.41	-1.331
253.68	-14.992
253.95	-23.482
254.21	-18.017
254.48	-17.345
254.75	0.432
255.02	5.550
255.29	-22.079
255.56	-13.840
255.82	10.229
256.09	-1.381
256.36	2.360
256.63	-11.021
256.90	-41.912
257.16	-14.071
257.43	-19.172
257.70	-15.760
257.97	9.575
258.24	-1.019
258.50	2.810
258.77	16.193
259.04	-4.822
259.31	-3.825
259.58	-0.895
259.85	3.932
260.11	-1.207
260.38	3.988
260.65	-0.270
260.92	3.819
261.19	0.086
261.45	6.238
261.72	4.422
261.99	3.123
262.26	10.196
262.53	1.519
262.79	-5.686
263.06	-6.527
263.33	0.940
263.60	2.565
263.86	-5.259
264.13	0.479
264.40	0.095
264.67	0.710
264.94	3.224
265.20	1.109
265.47	-0.847
265.74	-3.211
266.01	-0.770
266.28	2.515
266.54	2.896
266.81	-1.784
267.08	0.204
267.35	-0.371
267.61	-0.822
267.88	-1.085
268.15	-0.092
268.42	0.119
268.69	2.299
268.95	1.570
269.22	4.021
269.49	3.414
269.76	0.842
270.02	-1.911
270.29	0.599
270.56	0.936
270.83	1.057
271.09	2.814
271.36	3.261
271.63	4.286
271.90	1.478
272.17	2.072
272.43	1.387
272.70	3.317
272.97	0.618
273.24	1.017
273.50	0.298
273.77	0.125
274.04	-2.174
274.31	0.631
274.57	1.407
274.84	0.484
275.11	-0.274
275.38	1.133
275.64	0.944
275.91	0.262
276.18	2.974
276.45	0.575
276.71	0.046
276.98	0.224
277.25	2.354
277.52	2.643
277.78	2.211
278.05	-0.312
278.32	-0.132
278.59	0.285
278.85	0.883
279.12	1.012
279.39	0.537
279.66	-1.344
279.92	-1.169
280.19	1.867
280.46	0.805
280.73	-0.430
280.99	-0.609
281.26	1.276
281.53	2.183
281.79	3.065
282.06	1.026
282.33	1.094
282.60	2.688
282.86	2.184
283.13	1.002
283.40	2.055
283.67	2.134
283.93	2.437
284.20	1.953
284.47	0.941
284.73	3.284
285.00	2.482
285.27	1.661
285.54	1.195
285.80	0.499
286.07	1.538
286.34	2.144
286.60	1.767
286.87	0.998
287.14	0.060
287.41	-0.864
287.67	-0.322
287.94	-0.330
288.21	1.655
288.47	0.439
288.74	1.705
289.01	0.411
289.28	0.723
289.54	-0.352
289.81	1.665
290.08	0.298
290.34	0.950
290.61	0.513
290.88	1.343
291.15	-0.528
291.41	2.287
291.68	1.495
291.95	1.666
292.21	2.590
292.48	0.076
292.75	-0.237
293.01	0.453
293.28	1.143
293.55	2.075
293.81	1.177
294.08	1.274
294.35	1.324
294.62	2.766
294.88	1.206
295.15	2.266
295.42	2.814
295.68	0.363
295.95	0.781
296.22	-0.690
296.48	2.086
296.75	1.958
297.02	2.388
297.28	1.346
297.55	1.221
297.82	0.862
298.08	3.092
298.35	1.272
298.62	2.659
298.88	0.750
299.15	1.265
299.42	0.941
299.69	1.014
299.95	-0.717
300.22	0.896
300.49	-0.014
300.75	1.762
301.02	1.767
301.29	2.031
301.55	1.486
301.82	-0.735
302.09	0.059
302.35	0.586
302.62	0.547
302.89	0.531
303.15	0.744
303.42	-0.071
303.69	1.926
303.95	2.452
304.22	1.566
304.48	2.333
304.75	2.570
305.02	2.038
305.28	1.137
305.55	0.782
305.82	0.612
306.08	0.362
306.35	1.241
306.62	2.147
306.88	1.687
307.15	1.869
307.42	3.213
307.68	2.490
307.95	3.321
308.22	2.162
308.48	0.303
308.75	1.232
309.02	0.634
309.28	2.928
309.55	0.952
309.81	1.965
310.08	1.479
310.35	1.120
310.61	1.040
310.88	1.316
311.15	0.812
311.41	1.752
311.68	1.914
311.95	3.000
312.21	2.078
312.48	1.443
312.74	2.121
313.01	0.901
313.28	1.043
313.54	0.604
313.81	1.439
314.08	2.428
314.34	1.938
314.61	1.505
314.87	1.920
315.14	1.443
315.41	1.199
315.67	1.403
315.94	2.693
316.21	3.165
316.47	3.072
316.74	1.805
317.00	1.336
317.27	1.388
317.54	1.653
317.80	1.498
318.07	1.683
318.33	1.352
318.60	2.506
318.87	3.889
319.13	3.403
319.40	1.374
319.67	2.379
319.93	2.749
320.20	1.998
320.46	2.064
320.73	2.396
321.00	1.715
321.26	1.970
321.53	1.909
321.79	2.147
322.06	1.727
322.33	0.958
322.59	2.456
322.86	2.327
323.12	2.107
323.39	2.411
323.66	2.829
323.92	2.481
324.19	0.563
324.45	1.175
324.72	1.864
324.99	3.434
325.25	2.737
325.52	1.447
325.78	1.855
326.05	2.069
326.31	1.864
326.58	1.043
326.85	0.218
327.11	1.149
327.38	1.025
327.64	1.182
327.91	1.670
328.18	2.595
328.44	1.502
328.71	1.875
328.97	2.116
329.24	2.164
329.50	2.363
329.77	2.720
330.04	1.371
330.30	2.560
330.57	2.716
330.83	2.475
331.10	2.449
331.36	1.856
331.63	2.268
331.90	0.470
332.16	0.928
332.43	2.404
332.69	2.427
332.96	2.926
333.22	2.798
333.49	2.654
333.75	2.937
334.02	2.095
334.29	1.774
334.55	2.528
334.82	2.396
335.08	2.355
335.35	2.380
335.61	2.768
335.88	2.682
336.15	2.496
336.41	1.201
336.68	2.378
336.94	3.027
337.21	3.476
337.47	2.670
337.74	2.919
338.00	1.205
338.27	3.254
338.53	3.549
338.80	3.068
339.07	1.121
339.33	1.511
339.60	1.608
339.86	3.141
340.13	2.303
340.39	2.405
340.66	3.014
340.92	2.841
341.19	2.618
341.45	2.391
341.72	1.505
341.98	1.966
342.25	3.328
342.52	3.659
342.78	2.220
343.05	2.856
343.31	2.882
343.58	1.921
343.84	1.830
344.11	2.766
344.37	2.452
344.64	1.272
344.90	1.832
345.17	3.080
345.43	2.530
345.70	1.957
345.96	2.896
346.23	1.191
346.49	1.823
346.76	1.426
347.02	2.656
347.29	1.834
347.55	2.882
347.82	1.851
348.09	1.964
348.35	2.925
348.62	2.976
348.88	2.252
349.15	2.637
349.41	1.682
349.68	2.040
349.94	2.832
350.21	2.012
350.47	2.116
350.74	2.073
351.00	1.819
351.27	2.166
351.53	2.100
351.80	2.554
352.06	2.600
352.33	2.517
352.59	3.119
352.86	3.425
353.12	2.643
353.39	2.906
353.65	2.995
353.92	2.498
354.18	2.948
354.45	2.676
354.71	2.507
354.98	2.679
355.24	2.471
355.51	2.218
355.77	2.369
356.04	2.303
356.30	2.131
356.57	1.709
356.83	2.171
357.09	2.133
357.36	2.051
357.62	1.556
357.89	2.886
358.15	3.122
358.42	2.836
358.68	1.804
358.95	2.231
359.21	2.416
359.48	2.312
359.74	2.589
360.01	2.857
360.27	2.605
360.54	2.783
360.80	2.896
361.07	2.641
361.33	2.800
361.60	2.833
361.86	3.423
362.13	2.649
362.39	2.753
362.65	3.105
362.92	2.235
363.18	2.595
363.45	2.211
363.71	2.127
363.98	1.931
364.24	1.889
364.51	2.843
364.77	2.344
365.04	2.785
365.30	3.231
365.57	2.757
365.83	2.635
366.09	2.670
366.36	3.419
366.62	2.884
366.89	2.744
367.15	2.639
367.42	2.353
367.68	2.571
367.95	3.193
368.21	2.797
368.48	2.788
368.74	3.004
369.00	2.849
369.27	3.283
369.53	3.619
369.80	3.395
370.06	3.200
370.33	2.997
370.59	3.612
370.86	3.869
371.12	3.431
371.38	2.998
371.65	2.390
371.91	2.962
372.18	3.006
372.44	2.432
372.71	1.984
372.97	2.411
373.23	2.885
373.50	2.624
373.76	2.645
374.03	1.983
374.29	2.600
374.56	2.418
374.82	2.433
375.08	2.699
375.35	2.227
375.61	2.490
375.88	2.184
376.14	2.382
376.41	2.458
376.67	2.492
376.93	2.477
377.20	2.042
377.46	2.411
377.73	2.765
377.99	3.167
378.25	3.380
378.52	3.200
378.78	2.625
379.05	3.167
379.31	3.347
379.58	3.253
379.84	3.442
380.10	3.194
380.37	2.818
380.63	3.372
380.90	3.522
381.16	3.277
381.42	3.217
381.69	3.890
381.95	4.079
382.22	3.927
382.48	3.745
382.74	3.768
383.01	3.508
383.27	3.617
383.54	3.534
383.80	3.439
384.06	3.368
384.33	3.710
384.59	3.539
384.86	3.454
385.12	3.330
385.38	3.455
385.65	2.930
385.91	2.845
386.18	2.697
386.44	3.009
386.70	3.035
386.97	2.742
387.23	2.877
387.49	2.924
387.76	2.829
388.02	2.635
388.29	2.408
388.55	2.605
388.81	2.541
389.08	2.599
389.34	2.553
389.60	2.508
389.87	2.277
390.13	2.416
390.40	2.540
390.66	2.618
390.92	2.618
391.19	2.936
391.45	2.900
391.71	2.815
391.98	2.662
392.24	3.080
392.51	3.113
392.77	2.761
393.03	2.838
393.30	3.080
393.56	3.223
393.82	3.172
394.09	3.106
394.35	2.694
394.62	2.796
394.88	3.099
395.14	3.038
395.41	2.847
395.67	3.251
395.93	3.291
396.20	2.930
396.46	2.972
396.72	3.004
396.99	2.917
397.25	2.822
397.51	2.887
397.78	3.059
398.04	3.129
398.30	3.039
398.57	3.161
398.83	2.834
399.10	2.988
399.36	2.914
399.62	2.821
399.89	2.756
400.15	2.699
400.41	2.495
400.68	2.693
400.94	2.576
401.20	2.757
401.47	2.411
401.73	2.347
401.99	2.274
402.26	2.274
402.52	2.208
402.78	2.194
403.05	2.150
403.31	2.375
403.57	2.473
403.84	2.461
404.10	2.405
404.36	2.278
404.63	2.344
404.89	2.557
405.15	2.636
405.42	2.449
405.68	2.571
405.94	2.655
406.21	2.852
406.47	3.077
406.73	2.642
407.00	2.557
407.26	2.759
407.52	3.142
407.78	3.480
408.05	3.471
408.31	3.353
408.57	4.015
408.84	3.744
409.10	3.572
409.36	3.634
409.63	4.118
409.89	3.921
410.15	4.192
410.42	4.266
410.68	4.536
410.94	4.500
411.21	4.255
411.47	4.176
411.73	4.598
411.99	4.734
412.26	4.216
412.52	4.458
412.78	4.761
413.05	4.773
413.31	4.984
413.57	5.035
413.84	4.865
414.10	4.736
414.36	4.803
414.62	4.784
414.89	4.733
415.15	4.481
415.41	4.714
415.68	4.541
415.94	4.455
416.20	4.403
416.46	4.337
416.73	4.262
416.99	4.013
417.25	4.047
417.52	4.056
417.78	3.848
418.04	3.859
418.30	3.455
418.57	3.538
418.83	3.603
419.09	3.562
419.36	3.276
419.62	3.136
419.88	3.098
420.14	2.926
420.41	2.880
420.67	2.576
420.93	2.565
421.20	2.434
421.46	2.485
421.72	2.422
421.98	2.586
422.25	2.370
422.51	1.958
422.77	2.254
423.03	2.407
423.30	2.138
423.56	1.962
423.82	2.224
424.08	1.780
424.35	1.812
424.61	1.892
424.87	1.792
425.14	1.732
425.40	2.236
425.66	2.001
425.92	2.124
426.19	2.091
426.45	2.142
426.71	2.126
426.97	1.997
427.24	2.277
427.50	2.227
427.76	1.935
428.02	2.422
428.29	2.543
428.55	2.357
428.81	2.302
429.07	2.507
429.34	2.606
429.60	2.692
429.86	2.606
430.12	2.796
430.39	2.749
430.65	2.907
430.91	3.101
431.17	2.935
431.44	2.946
431.70	3.251
431.96	3.084
432.22	2.923
432.48	3.145
432.75	3.199
433.01	3.178
433.27	3.317
433.53	3.498
433.80	3.663
434.06	3.361
434.32	3.123
434.58	3.289
434.85	3.215
435.11	3.504
435.37	3.152
435.63	3.403
435.89	3.514
436.16	3.357
436.42	3.496
436.68	3.412
436.94	3.443
437.21	3.650
437.47	3.420
437.73	3.461
437.99	3.498
438.25	3.534
438.52	3.332
438.78	3.151
439.04	3.057
439.30	3.341
439.57	3.236
439.83	2.928
440.09	3.019
440.35	2.887
440.61	3.110
440.88	3.322
441.14	3.018
441.40	2.863
441.66	2.913
441.92	2.965
442.19	2.999
442.45	2.888
442.71	2.841
442.97	2.769
443.23	2.968
443.50	2.840
443.76	2.939
444.02	3.013
444.28	3.070
444.54	2.982
444.81	2.897
445.07	3.241
445.33	3.213
445.59	3.182
445.85	2.910
446.12	3.188
446.38	3.160
446.64	3.181
446.90	3.086
447.16	3.380
447.43	3.380
447.69	3.307
447.95	3.591
448.21	3.816
448.47	3.504
448.73	3.634
449.00	3.534
449.26	3.816
449.52	3.876
449.78	3.773
450.04	4.356
450.31	4.186
450.57	4.148
450.83	4.071
451.09	4.249
451.35	4.361
451.61	4.321
451.88	4.277
452.14	4.648
452.40	4.666
452.66	4.597
452.92	4.656
453.18	4.848
453.45	4.943
453.71	5.109
453.97	4.944
454.23	4.979
454.49	5.137
454.75	5.059
455.02	5.097
455.28	5.045
455.54	4.968
455.80	5.051
456.06	5.143
456.32	5.060
456.59	5.333
456.85	5.372
457.11	5.292
457.37	5.251
457.63	5.214
457.89	5.318
458.15	5.288
458.42	5.227
458.68	5.194
458.94	5.293
459.20	5.083
459.46	5.031
459.72	5.157
459.98	5.021
460.25	4.743
460.51	4.851
460.77	4.877
461.03	4.839
461.29	4.578
461.55	4.478
461.81	4.531
462.08	4.457
462.34	4.261
462.60	4.180
462.86	4.174
463.12	4.112
463.38	3.879
463.64	3.789
463.91	3.849
464.17	3.582
464.43	3.507
464.69	3.341
464.95	3.434
465.21	3.182
465.47	3.109
465.73	3.039
466.00	2.915
466.26	2.676
466.52	2.585
466.78	2.638
467.04	2.602
467.30	2.514
467.56	2.363
467.82	2.286
468.09	2.279
468.35	2.219
468.61	2.043
468.87	1.931
469.13	1.819
469.39	1.593
469.65	1.718
469.91	1.736
470.17	1.757
470.44	1.563
470.70	1.590
470.96	1.559
471.22	1.302
471.48	1.413
471.74	1.426
472.00	1.241
472.26	1.261
472.52	1.156
472.79	1.100
473.05	1.246
473.31	1.255
473.57	1.304
473.83	1.371
474.09	1.181
474.35	1.291
474.61	1.319
474.87	1.198
475.13	1.294
475.40	1.350
475.66	1.486
475.92	1.331
476.18	1.609
476.44	1.663
476.70	1.797
476.96	1.868
477.22	1.813
477.48	1.848
477.74	1.827
478.00	1.982
478.26	2.049
478.53	1.963
478.79	2.079
479.05	2.129
479.31	2.154
479.57	2.252
479.83	2.390
480.09	2.363
480.35	2.417
480.61	2.547
480.87	2.582
481.13	2.623
481.39	2.676
481.66	2.849
481.92	2.998
482.18	3.044
482.44	3.180
482.70	3.321
482.96	3.296
483.22	3.215
483.48	3.264
483.74	3.450
484.00	3.578
484.26	3.563
484.52	3.693
484.78	3.690
485.04	3.668
485.30	3.739
485.57	3.866
485.83	3.984
486.09	3.993
486.35	3.974
486.61	4.014
486.87	4.141
487.13	4.181
487.39	4.221
487.65	4.226
487.91	4.294
488.17	4.326
488.43	4.319
488.69	4.426
488.95	4.515
489.21	4.570
489.47	4.386
489.73	4.465
489.99	4.642
490.25	4.486
490.51	4.589
490.78	4.628
491.04	4.676
491.30	4.622
491.56	4.601
491.82	4.727
492.08	4.759
492.34	4.743
492.60	4.710
492.86	4.784
493.12	4.788
493.38	4.736
493.64	4.757
493.90	4.775
494.16	4.743
494.42	4.808
494.68	4.864
494.94	4.861
495.20	4.773
495.46	4.782
495.72	4.738
495.98	4.803
496.24	4.780
496.50	4.768
496.76	4.728
497.02	4.823
497.28	4.869
497.54	4.832
497.80	4.880
498.06	4.864
498.32	4.813
498.58	4.750
498.84	4.862
499.10	4.893
499.36	4.868
499.62	4.938
499.89	4.885
500.15	4.942
500.41	5.000
500.67	5.011
500.93	4.932
501.19	5.042
501.45	5.038
501.71	5.007
501.97	4.951
502.23	5.028
502.49	5.086
502.75	5.173
503.01	5.201
503.27	5.175
503.53	5.248
503.79	5.241
504.05	5.245
504.31	5.232
504.57	5.300
504.83	5.322
505.09	5.347
505.35	5.321
505.61	5.452
505.87	5.497
506.13	5.414
506.39	5.425
506.65	5.518
506.91	5.597
507.17	5.484
507.43	5.693
507.68	5.659
507.94	5.660
508.20	5.625
508.46	5.658
508.72	5.728
508.98	5.679
509.24	5.657
509.50	5.746
509.76	5.891
510.02	5.839
510.28	5.824
510.54	5.851
510.80	5.852
511.06	5.894
511.32	5.841
511.58	5.782
511.84	5.859
512.10	5.908
512.36	5.852
512.62	5.933
512.88	5.963
513.14	5.887
513.40	5.787
513.66	5.862
513.92	5.905
514.18	5.846
514.44	5.830
514.70	5.839
514.96	5.752
515.22	5.761
515.48	5.663
515.74	5.596
516.00	5.680
516.26	5.576
516.52	5.487
516.78	5.519
517.03	5.579
517.29	5.529
517.55	5.418
517.81	5.359
518.07	5.356
518.33	5.260
518.59	5.077
518.85	5.139
519.11	5.138
519.37	5.119
519.63	4.949
519.89	4.856
520.15	4.774
520.41	4.683
520.67	4.721
520.93	4.644
521.19	4.517
521.45	4.385
521.71	4.401
521.96	4.261
522.22	4.323
522.48	4.168
522.74	3.999
523.00	3.900
523.26	3.900
523.52	3.840
523.78	3.588
524.04	3.557
524.30	3.529
524.56	3.405
524.82	3.259
525.08	3.236
525.34	3.174
525.60	3.113
525.85	3.029
526.11	2.790
526.37	2.681
526.63	2.659
526.89	2.575
527.15	2.429
527.41	2.361
527.67	2.380
527.93	2.261
528.19	2.133
528.45	2.048
528.71	2.039
528.97	1.951
529.22	1.904
529.48	1.700
529.74	1.640
530.00	1.540
530.26	1.508
530.52	1.483
530.78	1.339
531.04	1.243
531.30	1.225
531.56	1.217
531.82	1.103
532.07	1.027
532.33	0.957
532.59	1.029
532.85	0.974
533.11	0.893
533.37	0.867
533.63	0.780
533.89	0.734
534.15	0.718
534.41	0.660
534.66	0.648
534.92	0.686
535.18	0.601
535.44	0.700
535.70	0.729
535.96	0.695
536.22	0.647
536.48	0.734
536.74	0.745
536.99	0.643
537.25	0.664
537.51	0.686
537.77	0.694
538.03	0.666
538.29	0.721
538.55	0.699
538.81	0.775
539.07	0.834
539.32	0.864
539.58	0.891
539.84	0.948
540.10	0.996
540.36	0.933
540.62	1.015
540.88	1.146
541.14	1.220
541.39	1.316
541.65	1.364
541.91	1.465
542.17	1.469
542.43	1.527
542.69	1.629
542.95	1.761
543.21	1.763
543.46	1.860
543.72	2.022
543.98	2.112
544.24	2.099
544.50	2.192
544.76	2.292
545.02	2.447
545.28	2.551
545.53	2.634
545.79	2.762
546.05	2.870
546.31	2.926
546.57	3.141
546.83	3.212
547.09	3.350
547.34	3.390
547.60	3.402
547.86	3.496
548.12	3.681
548.38	3.754
548.64	3.887
548.89	4.044
549.15	4.189
549.41	4.251
549.67	4.352
549.93	4.500
550.19	4.651
550.45	4.694
550.70	4.806
550.96	4.929
551.22	5.207
551.48	5.290
551.74	5.344
552.00	5.502
552.25	5.640
552.51	5.586
552.77	5.663
553.03	5.826
553.29	6.029
553.55	6.096
553.80	6.151
554.06	6.231
554.32	6.375
554.58	6.581
554.84	6.618
555.10	6.747
555.35	6.969
555.61	7.031
555.87	7.011
556.13	7.146
556.39	7.305
556.65	7.329
556.90	7.407
557.16	7.419
557.42	7.615
557.68	7.694
557.94	7.685
558.20	7.830
558.45	8.005
558.71	8.008
558.97	7.987
559.23	8.067
559.49	8.207
559.74	8.301
560.00	8.251
560.26	8.403
560.52	8.569
560.78	8.541
561.03	8.511
561.29	8.587
561.55	8.622
561.81	8.660
562.07	8.772
562.33	8.724
562.58	8.779
562.84	8.885
563.10	8.960
563.36	9.103
563.62	9.122
563.87	9.112
564.13	9.109
564.39	9.141
564.65	9.170
564.91	9.111
565.16	9.038
565.42	9.109
565.68	9.162
565.94	9.141
566.19	9.151
566.45	9.147
566.71	9.285
566.97	9.363
567.23	9.320
567.48	9.277
567.74	9.336
568.00	9.384
568.26	9.313
568.52	9.179
568.77	9.317
569.03	9.318
569.29	9.312
569.55	9.268
569.80	9.433
570.06	9.386
570.32	9.235
570.58	9.191
570.84	9.316
571.09	9.255
571.35	9.208
571.61	9.183
571.87	9.222
572.12	9.169
572.38	9.089
572.64	9.213
572.90	9.192
573.16	9.042
573.41	8.940
573.67	8.970
573.93	8.990
574.19	8.898
574.44	8.813
574.70	8.847
574.96	8.807
575.22	8.761
575.47	8.707
575.73	8.722
575.99	8.660
576.25	8.664
576.50	8.591
576.76	8.517
577.02	8.512
577.28	8.403
577.54	8.286
577.79	8.350
578.05	8.379
578.31	8.359
578.57	8.182
578.82	8.281
579.08	8.192
579.34	8.070
579.60	8.017
579.85	7.940
580.11	8.033
580.37	7.947
580.63	7.760
580.88	7.757
581.14	7.716
581.40	7.667
581.65	7.619
581.91	7.608
582.17	7.517
582.43	7.480
582.68	7.312
582.94	7.283
583.20	7.325
583.46	7.227
583.71	7.146
583.97	7.121
584.23	7.026
584.49	6.984
584.74	6.939
585.00	6.892
585.26	6.782
585.51	6.728
585.77	6.613
586.03	6.569
586.29	6.520
586.54	6.494
586.80	6.405
587.06	6.355
587.32	6.298
587.57	6.218
587.83	6.178
588.09	6.117
588.34	6.082
588.60	6.027
588.86	5.904
589.12	5.868
589.37	5.927
589.63	5.871
589.89	5.677
590.14	5.550
590.40	5.644
590.66	5.477
590.92	5.258
591.17	5.244
591.43	5.318
591.69	5.239
591.94	5.090
592.20	5.013
592.46	4.951
592.72	4.938
592.97	4.929
593.23	4.865
593.49	4.785
593.74	4.696
594.00	4.535
594.26	4.500
594.51	4.402
594.77	4.332
595.03	4.270
595.29	4.261
595.54	4.208
595.80	4.112
596.06	4.050
596.31	4.074
596.57	3.977
596.83	3.883
597.08	3.800
597.34	3.803
597.60	3.744
597.85	3.663
598.11	3.539
598.37	3.504
598.62	3.456
598.88	3.337
599.14	3.233
599.40	3.141
599.65	3.148
599.91	3.084
600.17	2.995
600.42	2.912
600.68	2.917
600.94	2.811
601.19	2.784
601.45	2.743
601.71	2.698
601.96	2.648
602.22	2.478
602.48	2.483
602.73	2.433
602.99	2.343
603.25	2.277
603.50	2.242
603.76	2.206
604.02	2.139
604.27	2.054
604.53	2.067
604.79	1.988
605.04	1.913
605.30	1.879
605.56	1.841
605.81	1.784
606.07	1.725
606.33	1.659
606.58	1.548
606.84	1.599
607.10	1.580
607.35	1.488
607.61	1.411
607.87	1.346
608.12	1.304
608.38	1.283
608.64	1.202
608.89	1.230
609.15	1.204
609.40	1.219
609.66	1.117
609.92	1.072
610.17	1.065
610.43	0.978
610.69	0.918
610.94	0.909
611.20	0.889
611.46	0.787
611.71	0.837
611.97	0.791
612.23	0.762
612.48	0.778
612.74	0.743
612.99	0.712
613.25	0.766
613.51	0.694
613.76	0.643
614.02	0.698
614.28	0.676
614.53	0.619
614.79	0.654
615.04	0.676
615.30	0.595
615.56	0.544
615.81	0.599
616.07	0.627
616.33	0.609
616.58	0.612
616.84	0.619
617.10	0.632
617.35	0.614
617.61	0.594
617.86	0.631
618.12	0.595
618.38	0.562
618.63	0.607
618.89	0.639
619.14	0.680
619.40	0.672
619.66	0.679
619.91	0.703
620.17	0.730
620.43	0.746
620.68	0.766
620.94	0.745
621.19	0.810
621.45	0.884
621.71	0.806
621.96	0.888
622.22	0.913
622.47	0.941
622.73	0.980
622.99	1.032
623.24	1.092
623.50	1.153
623.75	1.187
624.01	1.225
624.27	1.265
624.52	1.323
624.78	1.309
625.03	1.387
625.29	1.438
625.55	1.499
625.80	1.512
626.06	1.564
626.31	1.665
626.57	1.702
626.83	1.770
627.08	1.792
627.34	1.902
627.59	1.988
627.85	2.034
628.10	2.102
628.36	2.164
628.62	2.233
628.87	2.308
629.13	2.378
629.38	2.409
629.64	2.543
629.90	2.615
630.15	2.646
630.41	2.744
630.66	2.809
630.92	2.897
631.17	2.995
631.43	3.109
631.69	3.152
631.94	3.232
632.20	3.317
632.45	3.466
632.71	3.534
632.96	3.583
633.22	3.696
633.48	3.825
633.73	3.872
633.99	3.960
634.24	4.037
634.50	4.094
634.75	4.194
635.01	4.248
635.27	4.353
635.52	4.513
635.78	4.547
636.03	4.634
636.29	4.713
636.54	4.883
636.80	4.988
637.05	5.030
637.31	5.208
637.57	5.311
637.82	5.354
638.08	5.406
638.33	5.530
638.59	5.698
638.84	5.770
639.10	5.781
639.35	5.882
639.61	6.031
639.86	6.058
640.12	6.127
640.38	6.241
640.63	6.366
640.89	6.393
641.14	6.490
641.40	6.631
641.65	6.751
641.91	6.740
642.16	6.824
642.42	7.040
642.67	7.100
642.93	7.168
643.19	7.336
643.44	7.418
643.70	7.451
643.95	7.521
644.21	7.597
644.46	7.640
644.72	7.809
644.97	7.938
645.23	7.963
645.48	8.109
645.74	8.246
645.99	8.327
646.25	8.387
646.50	8.469
646.76	8.594
647.01	8.604
647.27	8.683
647.52	8.658
647.78	8.790
648.04	8.878
648.29	8.939
648.55	9.058
648.80	9.069
649.06	9.111
649.31	9.145
649.57	9.214
649.82	9.316
650.08	9.405
650.33	9.430
650.59	9.546
650.84	9.650
651.10	9.707
651.35	9.726
651.61	9.769
651.86	9.797
652.12	9.906
652.37	9.921
652.63	9.990
652.88	10.060
653.14	10.122
653.39	10.198
653.65	10.253
653.90	10.323
654.16	10.274
654.41	10.262
654.67	10.397
654.92	10.492
655.18	10.504
655.43	10.470
655.69	10.563
655.94	10.613
656.20	10.609
656.45	10.600
656.71	10.619
656.96	10.700
657.22	10.717
657.47	10.741
657.73	10.828
657.98	10.813
658.24	10.847
658.49	10.807
658.75	10.816
659.00	10.912
659.26	10.877
659.51	10.873
659.76	10.886
660.02	10.901
660.27	10.930
660.53	10.909
660.78	10.958
661.04	11.033
661.29	11.056
661.55	11.013
661.80	11.089
662.06	11.127
662.31	11.100
662.57	10.991
662.82	11.068
663.08	11.105
663.33	11.113
663.59	11.104
663.84	11.087
664.10	11.121
664.35	11.132
664.60	11.116
664.86	11.186
665.11	11.179
665.37	11.170
665.62	11.096
665.88	11.168
666.13	11.133
666.39	11.146
666.64	11.083
666.90	11.136
667.15	11.155
667.40	11.080
667.66	10.978
667.91	10.983
668.17	11.027
668.42	11.016
668.68	10.973
668.93	10.952
669.19	10.957
669.44	10.959
669.70	10.853
669.95	10.875
670.20	10.849
670.46	10.701
670.71	10.726
670.97	10.750
671.22	10.771
671.48	10.715
671.73	10.610
671.99	10.573
672.24	10.564
672.49	10.494
672.75	10.429
673.00	10.525
673.26	10.468
673.51	10.431
673.77	10.359
674.02	10.365
674.27	10.343
674.53	10.282
674.78	10.232
675.04	10.218
675.29	10.173
675.55	10.093
675.80	9.962
676.05	9.974
676.31	9.980
676.56	9.872
676.82	9.760
677.07	9.790
677.33	9.825
677.58	9.677
677.83	9.550
678.09	9.556
678.34	9.566
678.60	9.539
678.85	9.419
679.10	9.345
679.36	9.367
679.61	9.351
679.87	9.249
680.12	9.196
680.38	9.183
680.63	9.147
680.88	8.997
681.14	8.993
681.39	8.965
681.65	8.963
681.90	8.836
682.15	8.816
682.41	8.832
682.66	8.769
682.92	8.701
683.17	8.669
683.42	8.586
683.68	8.510
683.93	8.410
684.19	8.371
684.44	8.398
684.69	8.345
684.95	8.282
685.20	8.237
685.46	8.118
685.71	8.013
685.96	8.032
686.22	8.000
686.47	7.899
686.73	7.905
686.98	8.019
687.23	7.708
687.49	7.704
687.74	7.645
687.99	7.474
688.25	7.376
688.50	7.379
688.76	7.347
689.01	7.247
689.26	7.205
689.52	7.166
689.77	7.026
690.02	6.968
690.28	6.953
690.53	6.985
690.79	6.888
691.04	6.752
691.29	6.805
691.55	6.817
691.80	6.737
692.05	6.629
692.31	6.630
692.56	6.581
692.82	6.459
693.07	6.339
693.32	6.319
693.58	6.293
693.83	6.178
694.08	6.129
694.34	6.080
694.59	6.087
694.85	6.049
695.10	5.925
695.35	5.871
695.61	5.872
695.86	5.831
696.11	5.857
696.37	5.731
696.62	5.623
696.87	5.570
697.13	5.608
697.38	5.558
697.63	5.532
697.89	5.434
698.14	5.392
698.39	5.351
698.65	5.334
698.90	5.260
699.16	5.116
699.41	5.110
699.66	5.078
699.92	5.021
700.17	4.946
700.42	4.914
700.68	4.804
700.93	4.807
701.18	4.696
701.44	4.693
701.69	4.689
701.94	4.599
702.20	4.556
702.45	4.531
702.70	4.474
702.96	4.389
703.21	4.331
703.46	4.308
703.72	4.303
703.97	4.306
704.22	4.208
704.48	4.192
704.73	4.162
704.98	4.120
705.24	4.039
705.49	3.933
705.74	3.906
706.00	3.891
706.25	3.820
706.50	3.781
706.76	3.784
707.01	3.733
707.26	3.639
707.52	3.648
707.77	3.625
708.02	3.627
708.27	3.518
708.53	3.510
708.78	3.471
709.03	3.454
709.29	3.347
709.54	3.332
709.79	3.328
710.05	3.322
710.30	3.279
710.55	3.236
710.81	3.216
711.06	3.167
711.31	3.118
711.57	3.073
711.82	3.082
712.07	3.024
712.32	2.996
712.58	2.954
712.83	2.879
713.08	2.877
713.34	2.844
713.59	2.796
713.84	2.807
714.10	2.704
714.35	2.658
714.60	2.723
714.85	2.686
715.11	2.639
715.36	2.575
715.61	2.526
715.87	2.497
716.12	2.460
716.37	2.438
716.62	2.428
716.88	2.400
717.13	2.312
717.38	2.283
717.64	2.257
717.89	2.260
718.14	2.234
718.39	2.220
718.65	2.161
718.90	2.117
719.15	2.086
719.41	2.082
719.66	2.087
719.91	2.091
720.16	2.091
720.42	2.052
720.67	2.001
720.92	1.992
721.18	1.910
721.43	1.903
721.68	1.914
721.93	1.894
722.19	1.858
722.44	1.807
722.69	1.774
722.94	1.777
723.20	1.757
723.45	1.691
723.70	1.680
723.95	1.653
724.21	1.671
724.46	1.639
724.71	1.597
724.97	1.580
725.22	1.621
725.47	1.588
725.72	1.530
725.98	1.517
726.23	1.519
726.48	1.499
726.73	1.435
726.99	1.447
727.24	1.470
727.49	1.417
727.74	1.405
728.00	1.410
728.25	1.414
728.50	1.308
728.75	1.344
729.01	1.334
729.26	1.303
729.51	1.294
729.76	1.273
730.02	1.231
730.27	1.237
730.52	1.277
730.77	1.248
731.03	1.246
731.28	1.227
731.53	1.161
731.78	1.211
732.03	1.201
732.29	1.122
732.54	1.143
732.79	1.155
733.04	1.151
733.30	1.155
733.55	1.153
733.80	1.123
734.05	1.128
734.31	1.136
734.56	1.118
734.81	1.067
735.06	1.089
735.31	1.111
735.57	1.075
735.82	1.068
736.07	1.130
736.32	1.119
736.58	1.053
736.83	1.050
737.08	1.048
737.33	1.067
737.58	1.031
737.84	1.025
738.09	1.064
738.34	1.114
738.59	1.084
738.85	1.070
739.10	1.096
739.35	1.105
739.60	1.117
739.85	1.105
740.11	1.075
740.36	1.099
740.61	1.080
740.86	1.095
741.11	1.146
741.37	1.120
741.62	1.154
741.87	1.150
742.12	1.154
742.37	1.118
742.63	1.118
742.88	1.069
743.13	1.115
743.38	1.149
743.63	1.146
743.89	1.235
744.14	1.205
744.39	1.224
744.64	1.215
744.89	1.241
745.15	1.259
745.40	1.280
745.65	1.302
745.90	1.349
746.15	1.346
746.41	1.378
746.66	1.306
746.91	1.348
747.16	1.427
747.41	1.397
747.67	1.389
747.92	1.428
748.17	1.458
748.42	1.441
748.67	1.480
748.92	1.471
749.18	1.548
749.43	1.535
749.68	1.528
749.93	1.558
750.18	1.569
750.43	1.542
750.69	1.620
750.94	1.701
751.19	1.754
751.44	1.752
751.69	1.731
751.95	1.766
752.20	1.850
752.45	1.871
752.70	1.829
752.95	1.872
753.20	1.987
753.46	1.999
753.71	1.993
753.96	2.019
754.21	2.098
754.46	2.068
754.71	2.092
754.97	2.194
755.22	2.258
755.47	2.228
755.72	2.247
755.97	2.303
756.22	2.337
756.47	2.385
756.73	2.394
756.98	2.495
757.23	2.579
757.48	2.518
757.73	2.518
757.98	2.573
758.24	2.596
758.49	2.678
758.74	2.675
758.99	2.730
759.24	2.808
759.49	2.805
759.74	2.868
760.00	2.931
760.25	2.965
760.50	3.003
760.75	3.051
761.00	3.096
761.25	3.180
761.50	3.223
761.75	3.176
762.01	3.252
762.26	3.320
762.51	3.346
762.76	3.372
763.01	3.494
763.26	3.585
763.51	3.547
763.77	3.513
764.02	3.648
764.27	3.739
764.52	3.786
764.77	3.790
765.02	3.895
765.27	3.946
765.52	3.942
765.78	3.895
766.03	3.960
766.28	4.157
766.53	4.141
766.78	4.180
767.03	4.226
767.28	4.348
767.53	4.420
767.79	4.448
768.04	4.470
768.29	4.555
768.54	4.627
768.79	4.651
769.04	4.711
769.29	4.791
769.54	4.841
769.79	4.836
770.05	4.921
770.30	5.032
770.55	5.032
770.80	5.001
771.05	5.104
771.30	5.157
771.55	5.241
771.80	5.246
772.05	5.326
772.30	5.370
772.56	5.436
772.81	5.416
773.06	5.473
773.31	5.575
773.56	5.589
773.81	5.537
774.06	5.635
774.31	5.768
774.56	5.799
774.81	5.832
775.07	5.851
775.32	5.971
775.57	6.047
775.82	6.137
776.07	6.133
776.32	6.286
776.57	6.234
776.82	6.239
777.07	6.395
777.32	6.554
777.57	6.485
777.82	6.423
778.08	6.542
778.33	6.662
778.58	6.736
778.83	6.731
779.08	6.791
779.33	6.876
779.58	6.840
779.83	6.880
780.08	6.968
780.33	7.027
780.58	7.084
780.83	7.120
781.08	7.109
781.34	7.179
781.59	7.228
781.84	7.249
782.09	7.396
782.34	7.463
782.59	7.467
782.84	7.472
783.09	7.587
783.34	7.714
783.59	7.621
783.84	7.627
784.09	7.752
784.34	7.831
784.59	7.811
784.84	7.835
785.10	7.937
785.35	7.901
785.60	7.993
785.85	8.001
786.10	8.066
786.35	8.165
786.60	8.215
786.85	8.162
787.10	8.355
787.35	8.395
787.60	8.414
787.85	8.348
788.10	8.435
788.35	8.546
788.60	8.610
788.85	8.463
789.10	8.559
789.35	8.664
789.60	8.742
789.85	8.709
790.10	8.765
790.36	9.002
790.61	8.897
790.86	8.870
791.11	8.905
791.36	9.077
791.61	9.132
791.86	9.029
792.11	9.083
792.36	9.203
792.61	9.327
792.86	9.309
793.11	9.355
793.36	9.395
793.61	9.422
793.86	9.388
794.11	9.469
794.36	9.583
794.61	9.524
794.86	9.534
795.11	9.476
795.36	9.506
795.61	9.603
795.86	9.558
796.11	9.559
796.36	9.644
796.61	9.661
796.86	9.571
797.11	9.554
797.36	9.574
797.61	9.595
797.86	9.493
798.11	9.549
798.36	9.600
798.61	9.659
798.86	9.719
799.11	9.783
799.36	9.883
799.61	9.929
799.86	9.927
800.11	9.922
800.36	10.091
800.61	10.099
800.86	10.062
801.11	10.232
801.36	10.280
801.61	10.209
801.86	10.263
802.11	10.305
802.36	10.254
802.61	10.276
802.86	10.251
803.11	10.255
803.36	10.336
803.61	10.372
803.86	10.306
804.11	10.350
804.36	10.369
804.61	10.401
804.86	10.380
805.11	10.478
805.36	10.555
805.61	10.508
805.86	10.478
806.11	10.447
806.36	10.567
806.61	10.510
806.86	10.390
807.11	10.484
807.36	10.629
807.61	10.619
807.86	10.591
808.11	10.464
808.36	10.445
808.61	10.488
808.86	10.393
809.11	10.324
809.36	10.455
809.61	10.473
809.86	10.343
810.11	10.358
810.36	10.418
810.61	10.445
810.86	10.384
811.11	10.447
811.36	10.456
811.61	10.446
811.86	10.400
812.11	10.376
812.36	10.442
812.61	10.418
812.86	10.384
813.11	10.409
813.36	10.473
813.61	10.445
813.86	10.437
814.11	10.478
814.35	10.431
814.60	10.425
814.85	10.461
815.10	10.352
815.35	10.431
815.60	10.402
815.85	10.382
816.10	10.363
816.35	10.314
816.60	10.312
816.85	10.234
817.10	10.267
817.35	10.250
817.60	10.228
817.85	10.178
818.10	10.213
818.35	10.269
818.60	10.174
818.85	10.104
819.10	10.129
819.34	10.054
819.59	10.139
819.84	10.091
820.09	10.126
820.34	10.081
820.59	10.057
820.84	10.033
821.09	10.035
821.34	10.079
821.59	9.995
821.84	9.985
822.09	10.104
822.34	10.180
822.59	10.124
822.84	10.082
823.08	10.059
823.33	10.000
823.58	10.005
823.83	9.927
824.08	9.875
824.33	9.947
824.58	9.899
824.83	9.785
825.08	9.774
825.33	9.772
825.58	9.702
825.83	9.710
826.08	9.703
826.33	9.718
826.57	9.682
826.82	9.623
827.07	9.574
827.32	9.648
827.57	9.610
827.82	9.590
828.07	9.676
828.32	9.677
828.57	9.695
828.82	9.618
829.07	9.599
829.31	9.641
829.56	9.570
829.81	9.531
830.06	9.535
830.31	9.468
830.56	9.327
830.81	9.355
831.06	9.304
831.31	9.261
831.56	9.277
831.80	9.172
832.05	9.151
832.30	9.151
832.55	9.104
832.80	9.097
833.05	9.049
833.30	9.008
833.55	9.024
833.80	8.965
834.05	8.893
834.29	8.925
834.54	8.957
834.79	8.855
835.04	8.817
835.29	8.872
835.54	8.830
835.79	8.792
836.04	8.696
836.29	8.664
836.53	8.731
836.78	8.710
837.03	8.716
837.28	8.761
837.53	8.675
837.78	8.646
838.03	8.665
838.28	8.644
838.52	8.583
838.77	8.534
839.02	8.493
839.27	8.480
839.52	8.377
839.77	8.362
840.02	8.381
840.27	8.350
840.51	8.324
840.76	8.256
841.01	8.251
841.26	8.239
841.51	8.178
841.76	8.144
842.01	8.108
842.26	8.143
842.50	8.109
842.75	8.000
843.00	7.986
843.25	7.925
843.50	7.949
843.75	7.893
844.00	7.874
844.24	7.866
844.49	7.782
844.74	7.796
844.99	7.794
845.24	7.746
845.49	7.697
845.74	7.658
845.98	7.659
846.23	7.717
846.48	7.656
846.73	7.506
846.98	7.444
847.23	7.456
847.47	7.432
847.72	7.392
847.97	7.435
848.22	7.408
848.47	7.328
848.72	7.340
848.97	7.307
849.21	7.342
849.46	7.266
849.71	7.128
849.96	7.106
850.21	7.116
850.46	7.101
850.70	6.962
850.95	6.980
851.20	7.046
851.45	7.049
851.70	6.978
851.95	6.931
852.19	6.996
852.44	6.950
852.69	6.888
852.94	6.886
853.19	6.807
853.44	6.739
853.68	6.646
853.93	6.620
854.18	6.627
854.43	6.642
854.68	6.592
854.93	6.613
855.17	6.653
855.42	6.638
855.67	6.550
855.92	6.562
856.17	6.543
856.41	6.543
856.66	6.526
856.91	6.543
857.16	6.544
857.41	6.467
857.65	6.414
857.90	6.420
858.15	6.408
858.40	6.358
858.65	6.309
858.90	6.286
859.14	6.245
859.39	6.237
859.64	6.198
859.89	6.202
860.14	6.220
860.38	6.140
860.63	6.088
860.88	6.159
861.13	6.145
861.38	6.095
861.62	6.070
861.87	6.095
862.12	6.123
862.37	6.127
862.62	6.036
862.86	6.002
863.11	5.967
863.36	5.907
863.61	5.952
863.86	5.973
864.10	5.949
864.35	5.974
864.60	5.913
864.85	5.916
865.09	6.002
865.34	6.014
865.59	5.899
865.84	5.881
866.09	5.919
866.33	5.889
866.58	5.838
866.83	5.848
867.08	5.876
867.33	5.851
867.57	5.809
867.82	5.764
868.07	5.778
868.32	5.755
868.56	5.710
868.81	5.725
869.06	5.733
869.31	5.739
869.55	5.730
869.80	5.776
870.05	5.790
870.30	5.752
870.55	5.702
870.79	5.695
871.04	5.735
871.29	5.684
871.54	5.653
871.78	5.702
872.03	5.701
872.28	5.698
872.53	5.638
872.77	5.667
873.02	5.649
873.27	5.612
873.52	5.521
873.76	5.624
874.01	5.631
874.26	5.611
874.51	5.585
874.75	5.573
875.00	5.591
875.25	5.562
875.50	5.530
875.75	5.540
875.99	5.528
876.24	5.515
876.49	5.535
876.74	5.532
876.98	5.545
877.23	5.555
877.48	5.464
877.72	5.494
877.97	5.506
878.22	5.480
878.47	5.436
878.71	5.397
878.96	5.418
879.21	5.423
879.46	5.350
879.70	5.313
879.95	5.375
880.20	5.358
880.45	5.335
880.69	5.357
880.94	5.384
881.19	5.354
881.44	5.371
881.68	5.368
881.93	5.409
882.18	5.434
882.42	5.449
882.67	5.437
882.92	5.428
883.17	5.346
883.41	5.281
883.66	5.280
883.91	5.378
884.16	5.404
884.40	5.304
884.65	5.295
884.90	5.312
885.14	5.274
885.39	5.237
885.64	5.280
885.89	5.294
886.13	5.324
886.38	5.249
886.63	5.255
886.87	5.255
887.12	5.240
887.37	5.201
887.62	5.190
887.86	5.227
888.11	5.218
888.36	5.216
888.60	5.200
888.85	5.217
889.10	5.130
889.35	5.132
889.59	5.192
889.84	5.252
890.09	5.275
890.33	5.217
890.58	5.301
890.83	5.384
891.07	5.293
891.32	5.191
891.57	5.238
891.82	5.264
892.06	5.221
892.31	5.113
892.56	5.196
892.80	5.181
893.05	5.167
893.30	5.170
893.54	5.174
893.79	5.233
894.04	5.198
894.28	5.160
894.53	5.150
894.78	5.175
895.02	5.145
895.27	5.121
895.52	5.150
895.77	5.166
896.01	5.118
896.26	5.056
896.51	5.036
896.75	4.989
897.00	4.974
897.25	4.975
897.49	4.976
897.74	4.988
897.99	4.975
898.23	4.929
898.48	4.928
898.73	5.039
898.97	4.981
899.22	4.912
899.47	4.923
899.71	5.046
899.96	4.976
900.21	4.884
900.45	4.886
900.70	4.892
900.95	4.880
901.19	4.836
901.44	4.858
901.69	4.919
901.93	4.934
902.18	4.852
902.43	4.852
902.67	4.918
902.92	4.858
903.17	4.838
903.41	4.821
903.66	4.880
903.91	4.886
904.15	4.841
904.40	4.883
904.65	4.847
904.89	4.843
905.14	4.813
905.38	4.770
905.63	4.804
905.88	4.756
906.12	4.723
906.37	4.725
906.62	4.715
906.86	4.747
907.11	4.704
907.36	4.732
907.60	4.733
907.85	4.668
908.10	4.649
908.34	4.603
908.59	4.633
908.84	4.641
909.08	4.603
909.33	4.591
909.57	4.612
909.82	4.582
910.07	4.537
910.31	4.521
910.56	4.524
910.81	4.541
911.05	4.498
911.30	4.456
911.54	4.480
911.79	4.448
912.04	4.411
912.28	4.356
912.53	4.444
912.78	4.358
913.02	4.308
913.27	4.344
913.51	4.363
913.76	4.347
914.01	4.291
914.25	4.221
914.50	4.303
914.75	4.314
914.99	4.250
915.24	4.224
915.48	4.245
915.73	4.185
915.98	4.144
916.22	4.154
916.47	4.220
916.71	4.170
916.96	4.056
917.21	4.064
917.45	4.048
917.70	4.044
917.95	4.014
918.19	4.031
918.44	4.079
918.68	4.028
918.93	3.924
919.18	3.936
919.42	3.949
919.67	3.877
919.91	3.895
920.16	3.929
920.41	3.859
920.65	3.887
920.90	3.875
921.14	3.848
921.39	3.819
921.64	3.804
921.88	3.727
922.13	3.726
922.37	3.793
922.62	3.731
922.87	3.664
923.11	3.702
923.36	3.716
923.60	3.677
923.85	3.621
924.09	3.642
924.34	3.612
924.59	3.594
924.83	3.570
925.08	3.532
925.32	3.508
925.57	3.515
925.82	3.408
926.06	3.428
926.31	3.475
926.55	3.376
926.80	3.339
927.04	3.341
927.29	3.355
927.54	3.352
927.78	3.288
928.03	3.286
928.27	3.215
928.52	3.224
928.76	3.234
929.01	3.231
929.26	3.162
929.50	3.098
929.75	3.135
929.99	3.123
930.24	3.094
930.48	3.069
930.73	3.000
930.98	2.964
931.22	2.950
931.47	2.975
931.71	2.908
931.96	2.927
932.20	2.922
932.45	2.902
932.69	2.837
932.94	2.856
933.19	2.849
933.43	2.824
933.68	2.712
933.92	2.758
934.17	2.768
934.41	2.708
934.66	2.664
934.90	2.643
935.15	2.639
935.39	2.648
935.64	2.567
935.89	2.577
936.13	2.597
936.38	2.525
936.62	2.421
936.87	2.478
937.11	2.479
937.36	2.422
937.60	2.373
937.85	2.371
938.09	2.387
938.34	2.412
938.59	2.348
938.83	2.360
939.08	2.381
939.32	2.357
939.57	2.277
939.81	2.233
940.06	2.198
940.30	2.227
940.55	2.156
940.79	2.129
941.04	2.180
941.28	2.113
941.53	2.087
941.77	2.083
942.02	2.087
942.26	2.074
942.51	1.967
942.76	1.962
943.00	1.980
943.25	1.894
943.49	1.854
943.74	1.885
943.98	1.893
944.23	1.918
944.47	1.835
944.72	1.829
944.96	1.809
945.21	1.823
945.45	1.773
945.70	1.782
945.94	1.787
946.19	1.701
946.43	1.729
946.68	1.686
946.92	1.662
947.17	1.650
947.41	1.604
947.66	1.587
947.90	1.563
948.15	1.564
948.39	1.499
948.64	1.547
948.88	1.520
949.13	1.521
949.37	1.498
949.62	1.416
949.86	1.394
950.11	1.400
950.35	1.390
950.60	1.363
950.84	1.350
951.09	1.319
951.33	1.324
951.58	1.336
951.82	1.277
952.07	1.259
952.31	1.253
952.56	1.186
952.80	1.167
953.05	1.186
953.29	1.177
953.54	1.113
953.78	1.193
954.03	1.130
954.27	1.125
954.52	1.115
954.76	1.108
955.01	1.093
955.25	1.057
955.50	1.075
955.74	1.104
955.99	1.072
956.23	0.975
956.47	0.958
956.72	1.042
956.96	1.018
957.21	0.931
957.45	0.912
957.70	0.905
957.94	0.917
958.19	0.940
958.43	0.884
958.68	0.897
958.92	0.874
959.17	0.857
959.41	0.821
959.66	0.910
959.90	0.860
960.14	0.786
960.39	0.817
960.63	0.815
960.88	0.821
961.12	0.808
961.37	0.722
961.61	0.768
961.86	0.736
962.10	0.792
962.35	0.798
962.59	0.713
962.84	0.730
963.08	0.712
963.32	0.709
963.57	0.755
963.81	0.747
964.06	0.728
964.30	0.697
964.55	0.693
964.79	0.667
965.04	0.717
965.28	0.686
965.52	0.772
965.77	0.726
966.01	0.656
966.26	0.672
966.50	0.726
966.75	0.669
966.99	0.596
967.24	0.621
967.48	0.702
967.72	0.729
967.97	0.700
968.21	0.683
968.46	0.718
968.70	0.659
968.95	0.605
969.19	0.683
969.43	0.699
969.68	0.665
969.92	0.618
970.17	0.657
970.41	0.671
970.66	0.676
970.90	0.648
971.14	0.636
971.39	0.684
971.63	0.641
971.88	0.674
972.12	0.707
972.37	0.705
972.61	0.750
972.85	0.784
973.10	0.734
973.34	0.747
973.59	0.777
973.83	0.747
974.08	0.784
974.32	0.766
974.56	0.699
974.81	0.669
975.05	0.753
975.30	0.763
975.54	0.790
975.78	0.800
976.03	0.752
976.27	0.827
976.52	0.783
976.76	0.759
977.00	0.826
977.25	0.847
977.49	0.855
977.74	0.804
977.98	0.808
978.22	0.822
978.47	0.834
978.71	0.815
978.96	0.934
979.20	0.974
979.44	0.997
979.69	0.930
979.93	0.984
980.18	0.961
980.42	1.067
980.66	0.993
980.91	0.992
981.15	1.018
981.40	1.043
981.64	1.045
981.88	1.082
982.13	1.057
982.37	1.125
982.62	1.169
982.86	1.164
983.10	1.143
983.35	1.129
983.59	1.181
983.83	1.282
984.08	1.217
984.32	1.202
984.57	1.264
984.81	1.275
985.05	1.309
985.30	1.237
985.54	1.275
985.78	1.350
986.03	1.315
986.27	1.339
986.52	1.449
986.76	1.452
987.00	1.555
987.25	1.622
987.49	1.455
987.73	1.495
987.98	1.543
988.22	1.609
988.47	1.524
988.71	1.657
988.95	1.653
989.20	1.640
989.44	1.705
989.68	1.803
989.93	1.767
990.17	1.785
990.41	1.667
990.66	1.722
990.90	1.852
991.15	1.834
991.39	1.895
991.63	1.885
991.88	1.931
992.12	1.977
992.36	2.101
992.61	2.025
992.85	2.113
993.09	2.072
993.34	2.027
993.58	2.139
993.82	2.188
994.07	2.176
994.31	2.112
994.55	2.136
994.80	2.313
995.04	2.351
995.28	2.234
995.53	2.448
995.77	2.525
996.01	2.544
996.26	2.433
996.50	2.387
996.74	2.470
996.99	2.512
997.23	2.522
997.48	2.548
997.72	2.627
997.96	2.721
998.21	2.693
998.45	2.922
998.69	3.092
998.93	2.912
999.18	2.866
999.42	2.893
999.66	3.049
999.91	3.125
1000.15	3.163
1000.39	3.321
1000.64	3.343
1000.88	3.336
1001.12	3.314
1001.37	3.324
1001.61	3.308
1001.85	3.396
1002.10	3.208
1002.34	3.389
1002.58	3.469
1002.83	3.404
1003.07	3.561
1003.31	3.496
1003.56	3.626
1003.80	3.583
1004.04	3.673
1004.29	3.733
1004.53	3.766
1004.77	3.778
1005.01	3.755
1005.26	3.957
1005.50	3.927
1005.74	4.014
1005.99	3.998
1006.23	3.994
1006.47	3.969
1006.72	4.185
1006.96	3.819
1007.20	4.038
1007.45	4.069
1007.69	4.153
1007.93	4.284
1008.17	4.384
1008.42	4.303
1008.66	4.426
1008.90	4.199
1009.15	4.270
1009.39	4.541
1009.63	4.463
1009.87	4.416
1010.12	4.592
1010.36	4.906
1010.60	4.756
1010.85	4.764
1011.09	4.906
1011.33	5.089
1011.58	4.952
1011.82	5.156
1012.06	5.239
1012.30	5.192
1012.55	5.355
1012.79	5.156
1013.03	5.201
1013.28	5.299
1013.52	5.191
1013.76	5.349
1014.00	5.427
1014.25	5.377
1014.49	5.560
1014.73	5.607
1014.97	5.782
1015.22	5.853
1015.46	5.741
1015.70	5.484
1015.95	5.665
1016.19	5.775
1016.43	5.939
1016.67	5.770
1016.92	6.002
1017.16	5.921
1017.40	5.836
1017.64	6.254
1017.89	5.960
1018.13	5.941
1018.37	5.993
1018.61	6.185
1018.86	6.246
1019.10	6.306
1019.34	6.345
1019.59	6.394
1019.83	6.368
1020.07	6.455
1020.31	6.623
1020.56	6.371
1020.80	6.484
1021.04	6.604
1021.28	6.693
1021.53	6.672
1021.77	6.727
1022.01	7.018
1022.25	7.017
1022.50	6.802
1022.74	6.827
1022.98	7.060
1023.22	7.196
1023.47	7.183
1023.71	7.365
1023.95	7.248
1024.19	7.436
1024.44	7.005
1024.68	6.943
1024.92	7.422
1025.16	7.523
1025.41	7.364
1025.65	7.422
1025.89	7.717
1026.13	7.642
1026.37	7.668
1026.62	7.624
1026.86	7.821
1027.10	8.063
1027.34	7.882
1027.59	8.081
1027.83	8.036
1028.07	7.892
1028.31	8.173
1028.56	8.307
1028.80	8.213
1029.04	8.358
1029.28	8.159
1029.52	8.373
1029.77	8.349
1030.01	8.243
1030.25	8.423
1030.49	8.627
1030.74	8.533
1030.98	8.686
1031.22	8.561
1031.46	8.559
1031.70	8.841
1031.95	8.952
1032.19	8.717
1032.43	8.791
1032.67	9.095
1032.92	9.298
1033.16	9.021
1033.40	8.854
1033.64	9.260
1033.88	9.273
1034.13	9.134
1034.37	9.116
1034.61	9.289
1034.85	8.929
1035.09	9.198
1035.34	9.486
1035.58	9.346
1035.82	9.375
1036.06	9.534
1036.30	9.721
1036.55	10.011
1036.79	9.357
1037.03	9.654
1037.27	9.682
1037.51	10.131
1037.76	9.957
1038.00	9.777
1038.24	10.118
1038.48	10.013
1038.72	10.261
1038.97	10.045
1039.21	10.328
1039.45	10.305
1039.69	10.634
1039.93	10.199
1040.18	10.100
1040.42	10.273
1040.66	10.438
1040.90	10.404
1041.14	10.369
1041.38	10.428
1041.63	10.771
1041.87	10.598
1042.11	10.576
1042.35	10.820
1042.59	10.729
1042.84	10.833
1043.08	10.861
1043.32	10.784
1043.56	10.904
1043.80	11.108
1044.04	10.902
1044.29	11.262
1044.53	10.616
1044.77	10.539
1045.01	10.821
1045.25	11.264
1045.49	11.061
1045.74	10.873
1045.98	11.231
1046.22	10.914
1046.46	10.744
1046.70	11.003
1046.94	11.502
1047.19	11.095
1047.43	11.070
1047.67	11.048
1047.91	11.232
1048.15	11.607
1048.39	11.865
1048.64	11.045
1048.88	11.441
1049.12	11.585
1049.36	11.567
1049.60	11.497
1049.84	11.941
1050.09	11.977
1050.33	12.095
1050.57	11.678
1050.81	11.866
1051.05	11.726
1051.29	12.168
1051.53	11.857
1051.78	11.874
1052.02	12.101
1052.26	11.862
1052.50	11.965
1052.74	12.263
1052.98	12.355
1053.22	11.434
1053.47	12.018
1053.71	11.884
1053.95	12.139
1054.19	12.164
1054.43	12.013
1054.67	12.327
1054.91	12.450
1055.16	12.758
1055.40	12.159
1055.64	11.696
1055.88	12.691
1056.12	12.565
1056.36	12.803
1056.60	12.444
1056.85	12.587
1057.09	13.232
1057.33	12.212
1057.57	12.538
1057.81	13.401
1058.05	13.073
1058.29	13.064
1058.53	14.004
1058.78	13.477
1059.02	13.417
1059.26	13.101
1059.50	13.790
1059.74	13.845
1059.98	14.565
1060.22	13.724
1060.46	13.697
1060.71	13.780
1060.95	12.809
1061.19	13.082
1061.43	13.192
1061.67	13.406
1061.91	13.645
1062.15	13.230
1062.39	12.958
1062.63	12.222
1062.88	13.152
1063.12	13.292
1063.36	13.624
1063.60	13.725
1063.84	13.609
1064.08	13.823
1064.32	13.457
1064.56	13.332
1064.80	13.329
1065.05	13.606
1065.29	12.885
1065.53	13.868
1065.77	14.459
1066.01	13.355
1066.25	13.653
1066.49	13.534
1066.73	14.013
1066.97	13.811
1067.21	13.252
1067.46	13.668
1067.70	14.177
1067.94	14.188
1068.18	13.523
1068.42	13.250
1068.66	14.530
1068.90	13.733
1069.14	13.838
1069.38	13.947
1069.62	14.472
1069.86	14.070
1070.11	15.004
1070.35	14.883
1070.59	14.569
1070.83	14.082
1071.07	15.064
1071.31	14.916
1071.55	14.542
1071.79	14.138
1072.03	14.242
1072.27	14.129
1072.51	14.200
1072.75	13.373
1072.99	13.775
1073.24	12.917
1073.48	14.233
1073.72	14.641
1073.96	14.510
1074.20	14.939
1074.44	14.196
1074.68	14.609
1074.92	14.840
1075.16	14.845
1075.40	14.429
1075.64	15.269
1075.88	14.988
1076.12	14.290
1076.36	12.984
1076.61	14.632
1076.85	14.592
1077.09	14.057
1077.33	14.843
1077.57	14.629
1077.81	15.101
1078.05	15.441
1078.29	14.473
1078.53	14.915
1078.77	14.663
1079.01	15.056
1079.25	14.637
1079.49	13.959
1079.73	15.560
1079.97	14.586
1080.21	15.349
1080.45	15.719
1080.69	15.365
1080.94	15.235
1081.18	15.319
1081.42	14.695
1081.66	15.379
1081.90	16.201
1082.14	15.450
1082.38	15.698
1082.62	13.597
1082.86	15.885
1083.10	15.619
1083.34	13.683
1083.58	15.753
1083.82	14.469
1084.06	14.317
1084.30	16.403
1084.54	15.583
1084.78	15.267
1085.02	14.669
1085.26	16.221
1085.50	14.938
1085.74	15.475
1085.98	15.639
1086.22	16.000
1086.46	16.554
1086.70	14.979
1086.94	14.613
1087.18	15.205
1087.43	15.213
1087.67	14.648
1087.91	14.887
1088.15	14.699
1088.39	14.583
1088.63	14.879
1088.87	15.653
1089.11	16.181
1089.35	17.037
1089.59	15.943
1089.83	14.871
1090.07	15.427
1090.31	15.468
1090.55	15.479
1090.79	15.478
1091.03	16.683
1091.27	13.901
1091.51	16.016
1091.75	15.559
1091.99	14.228
1092.23	14.676
1092.47	14.861
1092.71	16.388
1092.95	17.349
1093.19	15.444
1093.43	14.599
1093.67	15.522
1093.91	13.876
1094.15	15.034
1094.39	15.559
1094.63	15.469
1094.87	14.532
1095.11	13.233
1095.35	15.446
1095.59	14.548
1095.83	16.008
1096.07	15.376
1096.31	14.994
1096.55	16.655
1096.79	16.317
1097.03	15.184
1097.27	15.310
1097.51	16.889
1097.75	17.106
1097.99	15.351
1098.23	15.018
1098.47	16.420
1098.71	15.707
1098.95	16.056
1099.19	15.546
1099.43	18.768
1099.67	16.484
1099.91	18.227
1100.15	15.931
1100.39	14.592
1100.63	15.921
1100.87	16.552
1101.11	16.133
1101.35	15.296
1101.59	15.614
1101.83	18.084
1102.07	16.609
1102.31	15.695
1102.54	13.980
1102.78	13.365
1103.02	16.955
1103.26	16.049
1103.50	13.576
1103.74	13.874
1103.98	13.077
1104.22	12.036
1104.46	15.119
1104.70	12.523
1104.94	11.766
1105.18	14.567
1105.42	16.323
1105.66	14.049
1105.90	14.105
1106.14	12.515
1106.38	15.151
1106.62	15.878
1106.86	15.199
1107.10	14.657
1107.34	15.154
1107.58	18.081
1107.82	18.850
1108.06	15.675
1108.30	14.234
1108.54	14.431
1108.78	16.364
1109.01	13.093
1109.25	11.620
1109.49	17.455
1109.73	18.332
1109.97	14.941
1110.21	11.656
1110.45	16.456
1110.69	17.125
1110.93	12.158
1111.17	15.683
1111.41	14.101
1111.65	16.698
1111.89	14.384
1112.13	12.873
1112.37	14.109
1112.61	11.473
1112.85	9.259
1113.09	13.600
1113.32	13.327
1113.56	20.147
1113.80	10.562
1114.04	5.653
1114.28	11.395
1114.52	9.651
1114.76	14.046
1115.00	15.181
1115.24	13.528
1115.48	14.252
1115.72	11.621
1115.96	9.867
1116.20	14.651
1116.44	15.592
1116.67	16.612
1116.91	12.630
1117.15	12.353
1117.39	9.574
1117.63	9.763
1117.87	10.717
1118.11	7.638
1118.35	5.230
1118.59	4.884
1118.83	9.427
1119.07	16.475
1119.31	14.917
1119.55	17.036
1119.78	17.547
1120.02	19.626
1120.26	19.033
1120.50	11.227
1120.74	19.928
1120.98	15.057
1121.22	-1.400
1121.46	8.592
1121.70	8.489
1121.94	14.756
1122.18	9.280
1122.41	11.306
1122.65	1.338
1122.89	10.626
1123.13	9.318
>>>>>End Processed Spectral Data<<<<<
